Frequency [Hz] - Voltage_0 (FFT - (Peak))	Peak Magnitude [V] - Voltage_0 (FFT - (Peak))	
0	0.000318272	
10	6.0445E-6	
20	9.36304E-6	
30	1.50041E-5	
40	8.25442E-6	
50	1.44426E-5	
60	1.0622E-5	
70	1.01035E-5	
80	1.23705E-5	
90	2.03361E-5	
100	7.27972E-6	
110	9.44543E-6	
120	1.83915E-6	
130	5.08314E-7	
140	1.02448E-6	
150	9.82086E-7	
160	5.0451E-7	
170	4.57716E-7	
180	4.33485E-7	
190	3.93169E-7	
200	3.5276E-7	
210	3.27253E-7	
220	3.04478E-7	
230	2.81984E-7	
240	2.6082E-7	
250	2.47222E-7	
260	2.33217E-7	
270	2.21278E-7	
280	2.10984E-7	
290	2.01374E-7	
300	1.92817E-7	
310	1.84833E-7	
320	1.7766E-7	
330	1.71044E-7	
340	1.64906E-7	
350	1.59254E-7	
360	1.53984E-7	
370	1.49121E-7	
380	1.44565E-7	
390	1.40271E-7	
400	1.36244E-7	
410	1.32465E-7	
420	1.28894E-7	
430	1.25516E-7	
440	1.22329E-7	
450	1.19316E-7	
460	1.16447E-7	
470	1.13717E-7	
480	1.11123E-7	
490	1.08649E-7	
500	1.06287E-7	
510	1.04031E-7	
520	1.01875E-7	
530	9.98083E-8	
540	9.7829E-8	
550	9.59309E-8	
560	9.41075E-8	
570	9.2355E-8	
580	9.06696E-8	
590	8.90473E-8	
600	8.74845E-8	
610	8.59781E-8	
620	8.4525E-8	
630	8.31221E-8	
640	8.17672E-8	
650	8.04575E-8	
660	7.9191E-8	
670	7.79655E-8	
680	7.67789E-8	
690	7.56295E-8	
700	7.45154E-8	
710	7.34351E-8	
720	7.23871E-8	
730	7.13698E-8	
740	7.03821E-8	
750	6.94225E-8	
760	6.84899E-8	
770	6.75831E-8	
780	6.67012E-8	
790	6.5843E-8	
800	6.50077E-8	
810	6.41942E-8	
820	6.34019E-8	
830	6.26298E-8	
840	6.18772E-8	
850	6.11433E-8	
860	6.04275E-8	
870	5.97291E-8	
880	5.90475E-8	
890	5.83821E-8	
900	5.77322E-8	
910	5.70975E-8	
920	5.64773E-8	
930	5.58711E-8	
940	5.52786E-8	
950	5.46992E-8	
960	5.41325E-8	
970	5.35781E-8	
980	5.30355E-8	
990	5.25046E-8	
1000	5.19847E-8	
1010	5.14757E-8	
1020	5.09772E-8	
1030	5.04889E-8	
1040	5.00104E-8	
1050	4.95415E-8	
1060	4.90818E-8	
1070	4.86312E-8	
1080	4.81894E-8	
1090	4.7756E-8	
1100	4.73309E-8	
1110	4.69139E-8	
1120	4.65047E-8	
1130	4.61031E-8	
1140	4.57088E-8	
1150	4.53218E-8	
1160	4.49418E-8	
1170	4.45685E-8	
1180	4.4202E-8	
1190	4.38418E-8	
1200	4.3488E-8	
1210	4.31403E-8	
1220	4.27986E-8	
1230	4.24628E-8	
1240	4.21326E-8	
1250	4.1808E-8	
1260	4.14888E-8	
1270	4.11748E-8	
1280	4.08661E-8	
1290	4.05623E-8	
1300	4.02635E-8	
1310	3.99695E-8	
1320	3.96801E-8	
1330	3.93953E-8	
1340	3.9115E-8	
1350	3.88391E-8	
1360	3.85675E-8	
1370	3.83E-8	
1380	3.80366E-8	
1390	3.77772E-8	
1400	3.75217E-8	
1410	3.727E-8	
1420	3.70221E-8	
1430	3.67778E-8	
1440	3.65372E-8	
1450	3.63E-8	
1460	3.60662E-8	
1470	3.58359E-8	
1480	3.56088E-8	
1490	3.53849E-8	
1500	3.51642E-8	
1510	3.49466E-8	
1520	3.4732E-8	
1530	3.45204E-8	
1540	3.43118E-8	
1550	3.41059E-8	
1560	3.39029E-8	
1570	3.37026E-8	
1580	3.35051E-8	
1590	3.33101E-8	
1600	3.31178E-8	
1610	3.2928E-8	
1620	3.27407E-8	
1630	3.25559E-8	
1640	3.23734E-8	
1650	3.21933E-8	
1660	3.20156E-8	
1670	3.18401E-8	
1680	3.16668E-8	
1690	3.14958E-8	
1700	3.13269E-8	
1710	3.11601E-8	
1720	3.09954E-8	
1730	3.08328E-8	
1740	3.06721E-8	
1750	3.05134E-8	
1760	3.03567E-8	
1770	3.02019E-8	
1780	3.00489E-8	
1790	2.98978E-8	
1800	2.97485E-8	
1810	2.9601E-8	
1820	2.94552E-8	
1830	2.93112E-8	
1840	2.91689E-8	
1850	2.90282E-8	
1860	2.88892E-8	
1870	2.87517E-8	
1880	2.86159E-8	
1890	2.84816E-8	
1900	2.83489E-8	
1910	2.82177E-8	
1920	2.8088E-8	
1930	2.79597E-8	
1940	2.78329E-8	
1950	2.77075E-8	
1960	2.75836E-8	
1970	2.7461E-8	
1980	2.73397E-8	
1990	2.72198E-8	
2000	2.71012E-8	
2010	2.69839E-8	
2020	2.68679E-8	
2030	2.67532E-8	
2040	2.66397E-8	
2050	2.65274E-8	
2060	2.64163E-8	
2070	2.63064E-8	
2080	2.61977E-8	
2090	2.60901E-8	
2100	2.59837E-8	
2110	2.58784E-8	
2120	2.57742E-8	
2130	2.56711E-8	
2140	2.55691E-8	
2150	2.54681E-8	
2160	2.53682E-8	
2170	2.52694E-8	
2180	2.51715E-8	
2190	2.50746E-8	
2200	2.49788E-8	
2210	2.48839E-8	
2220	2.479E-8	
2230	2.4697E-8	
2240	2.4605E-8	
2250	2.45139E-8	
2260	2.44237E-8	
2270	2.43344E-8	
2280	2.4246E-8	
2290	2.41585E-8	
2300	2.40718E-8	
2310	2.39861E-8	
2320	2.39011E-8	
2330	2.3817E-8	
2340	2.37338E-8	
2350	2.36513E-8	
2360	2.35696E-8	
2370	2.34888E-8	
2380	2.34087E-8	
2390	2.33294E-8	
2400	2.32509E-8	
2410	2.31731E-8	
2420	2.30961E-8	
2430	2.30198E-8	
2440	2.29442E-8	
2450	2.28694E-8	
2460	2.27953E-8	
2470	2.27219E-8	
2480	2.26491E-8	
2490	2.25771E-8	
2500	2.25057E-8	
2510	2.24351E-8	
2520	2.2365E-8	
2530	2.22957E-8	
2540	2.2227E-8	
2550	2.21589E-8	
2560	2.20915E-8	
2570	2.20247E-8	
2580	2.19585E-8	
2590	2.18929E-8	
2600	2.18279E-8	
2610	2.17636E-8	
2620	2.16998E-8	
2630	2.16366E-8	
2640	2.1574E-8	
2650	2.1512E-8	
2660	2.14505E-8	
2670	2.13896E-8	
2680	2.13293E-8	
2690	2.12695E-8	
2700	2.12103E-8	
2710	2.11516E-8	
2720	2.10934E-8	
2730	2.10357E-8	
2740	2.09786E-8	
2750	2.0922E-8	
2760	2.08659E-8	
2770	2.08103E-8	
2780	2.07552E-8	
2790	2.07006E-8	
2800	2.06465E-8	
2810	2.05929E-8	
2820	2.05398E-8	
2830	2.04871E-8	
2840	2.04349E-8	
2850	2.03832E-8	
2860	2.0332E-8	
2870	2.02812E-8	
2880	2.02308E-8	
2890	2.01809E-8	
2900	2.01315E-8	
2910	2.00824E-8	
2920	2.00339E-8	
2930	1.99857E-8	
2940	1.9938E-8	
2950	1.98907E-8	
2960	1.98439E-8	
2970	1.97974E-8	
2980	1.97514E-8	
2990	1.97057E-8	
3000	1.96605E-8	
3010	1.96157E-8	
3020	1.95712E-8	
3030	1.95272E-8	
3040	1.94836E-8	
3050	1.94403E-8	
3060	1.93974E-8	
3070	1.93549E-8	
3080	1.93128E-8	
3090	1.92711E-8	
3100	1.92297E-8	
3110	1.91887E-8	
3120	1.91481E-8	
3130	1.91078E-8	
3140	1.90679E-8	
3150	1.90283E-8	
3160	1.89891E-8	
3170	1.89502E-8	
3180	1.89117E-8	
3190	1.88735E-8	
3200	1.88357E-8	
3210	1.87982E-8	
3220	1.8761E-8	
3230	1.87242E-8	
3240	1.86877E-8	
3250	1.86515E-8	
3260	1.86156E-8	
3270	1.85801E-8	
3280	1.85449E-8	
3290	1.851E-8	
3300	1.84754E-8	
3310	1.84411E-8	
3320	1.84072E-8	
3330	1.83735E-8	
3340	1.83401E-8	
3350	1.83071E-8	
3360	1.82743E-8	
3370	1.82419E-8	
3380	1.82097E-8	
3390	1.81779E-8	
3400	1.81463E-8	
3410	1.8115E-8	
3420	1.8084E-8	
3430	1.80533E-8	
3440	1.80229E-8	
3450	1.79927E-8	
3460	1.79628E-8	
3470	1.79332E-8	
3480	1.79039E-8	
3490	1.78749E-8	
3500	1.78461E-8	
3510	1.78176E-8	
3520	1.77893E-8	
3530	1.77613E-8	
3540	1.77336E-8	
3550	1.77062E-8	
3560	1.7679E-8	
3570	1.7652E-8	
3580	1.76254E-8	
3590	1.75989E-8	
3600	1.75728E-8	
3610	1.75468E-8	
3620	1.75212E-8	
3630	1.74957E-8	
3640	1.74706E-8	
3650	1.74456E-8	
3660	1.74209E-8	
3670	1.73965E-8	
3680	1.73723E-8	
3690	1.73483E-8	
3700	1.73246E-8	
3710	1.73011E-8	
3720	1.72778E-8	
3730	1.72548E-8	
3740	1.7232E-8	
3750	1.72094E-8	
3760	1.71871E-8	
3770	1.7165E-8	
3780	1.71431E-8	
3790	1.71214E-8	
3800	1.71E-8	
3810	1.70788E-8	
3820	1.70578E-8	
3830	1.7037E-8	
3840	1.70165E-8	
3850	1.69961E-8	
3860	1.6976E-8	
3870	1.69561E-8	
3880	1.69364E-8	
3890	1.69169E-8	
3900	1.68977E-8	
3910	1.68786E-8	
3920	1.68598E-8	
3930	1.68411E-8	
3940	1.68227E-8	
3950	1.68045E-8	
3960	1.67865E-8	
3970	1.67687E-8	
3980	1.6751E-8	
3990	1.67336E-8	
4000	1.67164E-8	
4010	1.66994E-8	
4020	1.66826E-8	
4030	1.6666E-8	
4040	1.66496E-8	
4050	1.66334E-8	
4060	1.66174E-8	
4070	1.66015E-8	
4080	1.65859E-8	
4090	1.65705E-8	
4100	1.65552E-8	
4110	1.65402E-8	
4120	1.65253E-8	
4130	1.65107E-8	
4140	1.64962E-8	
4150	1.64819E-8	
4160	1.64678E-8	
4170	1.64539E-8	
4180	1.64401E-8	
4190	1.64266E-8	
4200	1.64132E-8	
4210	1.64E-8	
4220	1.63871E-8	
4230	1.63742E-8	
4240	1.63616E-8	
4250	1.63492E-8	
4260	1.63369E-8	
4270	1.63248E-8	
4280	1.63129E-8	
4290	1.63012E-8	
4300	1.62896E-8	
4310	1.62782E-8	
4320	1.6267E-8	
4330	1.6256E-8	
4340	1.62451E-8	
4350	1.62345E-8	
4360	1.6224E-8	
4370	1.62137E-8	
4380	1.62035E-8	
4390	1.61935E-8	
4400	1.61837E-8	
4410	1.61741E-8	
4420	1.61646E-8	
4430	1.61553E-8	
4440	1.61462E-8	
4450	1.61372E-8	
4460	1.61285E-8	
4470	1.61198E-8	
4480	1.61114E-8	
4490	1.61031E-8	
4500	1.6095E-8	
4510	1.60871E-8	
4520	1.60793E-8	
4530	1.60717E-8	
4540	1.60642E-8	
4550	1.6057E-8	
4560	1.60498E-8	
4570	1.60429E-8	
4580	1.60361E-8	
4590	1.60295E-8	
4600	1.6023E-8	
4610	1.60168E-8	
4620	1.60106E-8	
4630	1.60047E-8	
4640	1.59989E-8	
4650	1.59932E-8	
4660	1.59877E-8	
4670	1.59824E-8	
4680	1.59773E-8	
4690	1.59723E-8	
4700	1.59674E-8	
4710	1.59628E-8	
4720	1.59583E-8	
4730	1.59539E-8	
4740	1.59497E-8	
4750	1.59457E-8	
4760	1.59418E-8	
4770	1.59381E-8	
4780	1.59345E-8	
4790	1.59312E-8	
4800	1.59279E-8	
4810	1.59248E-8	
4820	1.59219E-8	
4830	1.59192E-8	
4840	1.59166E-8	
4850	1.59141E-8	
4860	1.59118E-8	
4870	1.59097E-8	
4880	1.59077E-8	
4890	1.59059E-8	
4900	1.59043E-8	
4910	1.59028E-8	
4920	1.59015E-8	
4930	1.59003E-8	
4940	1.58992E-8	
4950	1.58984E-8	
4960	1.58977E-8	
4970	1.58971E-8	
4980	1.58967E-8	
4990	1.58965E-8	
