Frequency [Hz] - Voltage_0 (FFT - (Peak))	Peak Magnitude [V] - Voltage_0 (FFT - (Peak))	
0	0.000366884	
10	3.46139E-6	
20	6.18222E-6	
30	3.47989E-6	
40	1.36512E-5	
50	5.14372E-6	
60	3.37941E-6	
70	1.02562E-5	
80	9.34617E-6	
90	5.86686E-6	
100	6.30161E-6	
110	2.5801E-6	
120	1.01533E-6	
130	1.56878E-6	
140	1.56402E-6	
150	1.89978E-6	
160	1.63227E-6	
170	1.53349E-6	
180	1.49105E-6	
190	1.4074E-6	
200	1.33554E-6	
210	1.25496E-6	
220	1.201E-6	
230	1.14121E-6	
240	1.08867E-6	
250	1.04207E-6	
260	1.00056E-6	
270	9.6097E-7	
280	9.25315E-7	
290	8.91418E-7	
300	8.60516E-7	
310	8.31283E-7	
320	8.04271E-7	
330	7.78809E-7	
340	7.55067E-7	
350	7.3272E-7	
360	7.11691E-7	
370	6.91857E-7	
380	6.73141E-7	
390	6.55401E-7	
400	6.386E-7	
410	6.22664E-7	
420	6.07509E-7	
430	5.93102E-7	
440	5.79364E-7	
450	5.66259E-7	
460	5.53749E-7	
470	5.41794E-7	
480	5.3035E-7	
490	5.19393E-7	
500	5.08883E-7	
510	4.98801E-7	
520	4.89119E-7	
530	4.79814E-7	
540	4.70862E-7	
550	4.62247E-7	
560	4.53947E-7	
570	4.45947E-7	
580	4.3823E-7	
590	4.30781E-7	
600	4.23587E-7	
610	4.16636E-7	
620	4.09914E-7	
630	4.03411E-7	
640	3.97116E-7	
650	3.91019E-7	
660	3.85111E-7	
670	3.79384E-7	
680	3.73829E-7	
690	3.68439E-7	
700	3.63207E-7	
710	3.58125E-7	
720	3.53188E-7	
730	3.48389E-7	
740	3.43722E-7	
750	3.39183E-7	
760	3.34766E-7	
770	3.30466E-7	
780	3.26279E-7	
790	3.222E-7	
800	3.18226E-7	
810	3.14351E-7	
820	3.10574E-7	
830	3.06889E-7	
840	3.03294E-7	
850	2.99786E-7	
860	2.96361E-7	
870	2.93016E-7	
880	2.89749E-7	
890	2.86557E-7	
900	2.83438E-7	
910	2.80389E-7	
920	2.77408E-7	
930	2.74492E-7	
940	2.7164E-7	
950	2.68849E-7	
960	2.66118E-7	
970	2.63444E-7	
980	2.60827E-7	
990	2.58263E-7	
1000	2.55752E-7	
1010	2.53292E-7	
1020	2.50882E-7	
1030	2.48519E-7	
1040	2.46203E-7	
1050	2.43933E-7	
1060	2.41706E-7	
1070	2.39522E-7	
1080	2.3738E-7	
1090	2.35277E-7	
1100	2.33215E-7	
1110	2.3119E-7	
1120	2.29203E-7	
1130	2.27251E-7	
1140	2.25335E-7	
1150	2.23454E-7	
1160	2.21605E-7	
1170	2.19789E-7	
1180	2.18005E-7	
1190	2.16252E-7	
1200	2.14529E-7	
1210	2.12835E-7	
1220	2.1117E-7	
1230	2.09533E-7	
1240	2.07923E-7	
1250	2.0634E-7	
1260	2.04783E-7	
1270	2.03251E-7	
1280	2.01744E-7	
1290	2.00261E-7	
1300	1.98802E-7	
1310	1.97366E-7	
1320	1.95952E-7	
1330	1.94561E-7	
1340	1.93191E-7	
1350	1.91842E-7	
1360	1.90513E-7	
1370	1.89205E-7	
1380	1.87917E-7	
1390	1.86647E-7	
1400	1.85397E-7	
1410	1.84165E-7	
1420	1.82951E-7	
1430	1.81755E-7	
1440	1.80577E-7	
1450	1.79415E-7	
1460	1.7827E-7	
1470	1.77141E-7	
1480	1.76028E-7	
1490	1.74931E-7	
1500	1.73849E-7	
1510	1.72782E-7	
1520	1.7173E-7	
1530	1.70692E-7	
1540	1.69668E-7	
1550	1.68658E-7	
1560	1.67662E-7	
1570	1.6668E-7	
1580	1.6571E-7	
1590	1.64753E-7	
1600	1.63809E-7	
1610	1.62877E-7	
1620	1.61957E-7	
1630	1.61049E-7	
1640	1.60153E-7	
1650	1.59269E-7	
1660	1.58395E-7	
1670	1.57533E-7	
1680	1.56682E-7	
1690	1.55841E-7	
1700	1.55011E-7	
1710	1.54191E-7	
1720	1.53381E-7	
1730	1.52582E-7	
1740	1.51792E-7	
1750	1.51011E-7	
1760	1.50241E-7	
1770	1.49479E-7	
1780	1.48727E-7	
1790	1.47983E-7	
1800	1.47249E-7	
1810	1.46523E-7	
1820	1.45806E-7	
1830	1.45097E-7	
1840	1.44396E-7	
1850	1.43704E-7	
1860	1.4302E-7	
1870	1.42343E-7	
1880	1.41674E-7	
1890	1.41013E-7	
1900	1.4036E-7	
1910	1.39714E-7	
1920	1.39075E-7	
1930	1.38443E-7	
1940	1.37818E-7	
1950	1.37201E-7	
1960	1.3659E-7	
1970	1.35986E-7	
1980	1.35389E-7	
1990	1.34798E-7	
2000	1.34214E-7	
2010	1.33636E-7	
2020	1.33064E-7	
2030	1.32498E-7	
2040	1.31939E-7	
2050	1.31385E-7	
2060	1.30838E-7	
2070	1.30296E-7	
2080	1.2976E-7	
2090	1.2923E-7	
2100	1.28705E-7	
2110	1.28186E-7	
2120	1.27672E-7	
2130	1.27164E-7	
2140	1.26661E-7	
2150	1.26163E-7	
2160	1.2567E-7	
2170	1.25182E-7	
2180	1.247E-7	
2190	1.24222E-7	
2200	1.23749E-7	
2210	1.23281E-7	
2220	1.22818E-7	
2230	1.22359E-7	
2240	1.21905E-7	
2250	1.21455E-7	
2260	1.2101E-7	
2270	1.2057E-7	
2280	1.20133E-7	
2290	1.19702E-7	
2300	1.19274E-7	
2310	1.18851E-7	
2320	1.18431E-7	
2330	1.18016E-7	
2340	1.17605E-7	
2350	1.17198E-7	
2360	1.16795E-7	
2370	1.16396E-7	
2380	1.16001E-7	
2390	1.15609E-7	
2400	1.15221E-7	
2410	1.14837E-7	
2420	1.14457E-7	
2430	1.1408E-7	
2440	1.13707E-7	
2450	1.13338E-7	
2460	1.12972E-7	
2470	1.12609E-7	
2480	1.1225E-7	
2490	1.11894E-7	
2500	1.11542E-7	
2510	1.11193E-7	
2520	1.10847E-7	
2530	1.10504E-7	
2540	1.10165E-7	
2550	1.09829E-7	
2560	1.09495E-7	
2570	1.09165E-7	
2580	1.08838E-7	
2590	1.08514E-7	
2600	1.08193E-7	
2610	1.07875E-7	
2620	1.0756E-7	
2630	1.07248E-7	
2640	1.06939E-7	
2650	1.06632E-7	
2660	1.06329E-7	
2670	1.06028E-7	
2680	1.0573E-7	
2690	1.05434E-7	
2700	1.05141E-7	
2710	1.04851E-7	
2720	1.04564E-7	
2730	1.04279E-7	
2740	1.03996E-7	
2750	1.03717E-7	
2760	1.03439E-7	
2770	1.03165E-7	
2780	1.02892E-7	
2790	1.02622E-7	
2800	1.02355E-7	
2810	1.0209E-7	
2820	1.01827E-7	
2830	1.01567E-7	
2840	1.01309E-7	
2850	1.01053E-7	
2860	1.008E-7	
2870	1.00549E-7	
2880	1.003E-7	
2890	1.00053E-7	
2900	9.98087E-8	
2910	9.95664E-8	
2920	9.93262E-8	
2930	9.90882E-8	
2940	9.88523E-8	
2950	9.86184E-8	
2960	9.83867E-8	
2970	9.8157E-8	
2980	9.79293E-8	
2990	9.77037E-8	
3000	9.748E-8	
3010	9.72583E-8	
3020	9.70386E-8	
3030	9.68208E-8	
3040	9.6605E-8	
3050	9.63911E-8	
3060	9.6179E-8	
3070	9.59689E-8	
3080	9.57606E-8	
3090	9.55541E-8	
3100	9.53495E-8	
3110	9.51467E-8	
3120	9.49457E-8	
3130	9.47465E-8	
3140	9.4549E-8	
3150	9.43533E-8	
3160	9.41593E-8	
3170	9.3967E-8	
3180	9.37765E-8	
3190	9.35876E-8	
3200	9.34005E-8	
3210	9.3215E-8	
3220	9.30311E-8	
3230	9.28489E-8	
3240	9.26683E-8	
3250	9.24893E-8	
3260	9.23119E-8	
3270	9.21361E-8	
3280	9.19619E-8	
3290	9.17893E-8	
3300	9.16182E-8	
3310	9.14486E-8	
3320	9.12806E-8	
3330	9.11141E-8	
3340	9.0949E-8	
3350	9.07855E-8	
3360	9.06235E-8	
3370	9.04629E-8	
3380	9.03038E-8	
3390	9.01461E-8	
3400	8.99899E-8	
3410	8.98351E-8	
3420	8.96817E-8	
3430	8.95297E-8	
3440	8.93791E-8	
3450	8.92299E-8	
3460	8.90821E-8	
3470	8.89356E-8	
3480	8.87905E-8	
3490	8.86467E-8	
3500	8.85043E-8	
3510	8.83632E-8	
3520	8.82234E-8	
3530	8.8085E-8	
3540	8.79478E-8	
3550	8.78119E-8	
3560	8.76774E-8	
3570	8.7544E-8	
3580	8.7412E-8	
3590	8.72812E-8	
3600	8.71517E-8	
3610	8.70234E-8	
3620	8.68963E-8	
3630	8.67705E-8	
3640	8.66459E-8	
3650	8.65225E-8	
3660	8.64003E-8	
3670	8.62793E-8	
3680	8.61594E-8	
3690	8.60408E-8	
3700	8.59233E-8	
3710	8.58071E-8	
3720	8.56919E-8	
3730	8.55779E-8	
3740	8.54651E-8	
3750	8.53534E-8	
3760	8.52428E-8	
3770	8.51334E-8	
3780	8.50251E-8	
3790	8.49179E-8	
3800	8.48118E-8	
3810	8.47068E-8	
3820	8.46028E-8	
3830	8.45E-8	
3840	8.43983E-8	
3850	8.42976E-8	
3860	8.4198E-8	
3870	8.40995E-8	
3880	8.4002E-8	
3890	8.39056E-8	
3900	8.38103E-8	
3910	8.37159E-8	
3920	8.36227E-8	
3930	8.35304E-8	
3940	8.34392E-8	
3950	8.3349E-8	
3960	8.32598E-8	
3970	8.31716E-8	
3980	8.30844E-8	
3990	8.29982E-8	
4000	8.29131E-8	
4010	8.28289E-8	
4020	8.27457E-8	
4030	8.26635E-8	
4040	8.25822E-8	
4050	8.2502E-8	
4060	8.24227E-8	
4070	8.23443E-8	
4080	8.2267E-8	
4090	8.21906E-8	
4100	8.21151E-8	
4110	8.20406E-8	
4120	8.1967E-8	
4130	8.18944E-8	
4140	8.18227E-8	
4150	8.17519E-8	
4160	8.16821E-8	
4170	8.16132E-8	
4180	8.15452E-8	
4190	8.14781E-8	
4200	8.1412E-8	
4210	8.13467E-8	
4220	8.12824E-8	
4230	8.12189E-8	
4240	8.11564E-8	
4250	8.10948E-8	
4260	8.1034E-8	
4270	8.09742E-8	
4280	8.09152E-8	
4290	8.08571E-8	
4300	8.07999E-8	
4310	8.07436E-8	
4320	8.06881E-8	
4330	8.06335E-8	
4340	8.05798E-8	
4350	8.0527E-8	
4360	8.0475E-8	
4370	8.04238E-8	
4380	8.03736E-8	
4390	8.03242E-8	
4400	8.02756E-8	
4410	8.02279E-8	
4420	8.0181E-8	
4430	8.0135E-8	
4440	8.00899E-8	
4450	8.00455E-8	
4460	8.0002E-8	
4470	7.99594E-8	
4480	7.99176E-8	
4490	7.98766E-8	
4500	7.98364E-8	
4510	7.97971E-8	
4520	7.97586E-8	
4530	7.97209E-8	
4540	7.9684E-8	
4550	7.9648E-8	
4560	7.96128E-8	
4570	7.95784E-8	
4580	7.95448E-8	
4590	7.9512E-8	
4600	7.948E-8	
4610	7.94489E-8	
4620	7.94185E-8	
4630	7.9389E-8	
4640	7.93603E-8	
4650	7.93323E-8	
4660	7.93052E-8	
4670	7.92789E-8	
4680	7.92534E-8	
4690	7.92286E-8	
4700	7.92047E-8	
4710	7.91816E-8	
4720	7.91592E-8	
4730	7.91377E-8	
4740	7.91169E-8	
4750	7.9097E-8	
4760	7.90778E-8	
4770	7.90594E-8	
4780	7.90418E-8	
4790	7.9025E-8	
4800	7.9009E-8	
4810	7.89938E-8	
4820	7.89793E-8	
4830	7.89657E-8	
4840	7.89528E-8	
4850	7.89407E-8	
4860	7.89294E-8	
4870	7.89189E-8	
4880	7.89091E-8	
4890	7.89001E-8	
4900	7.8892E-8	
4910	7.88846E-8	
4920	7.88779E-8	
4930	7.88721E-8	
4940	7.8867E-8	
4950	7.88628E-8	
4960	7.88592E-8	
4970	7.88565E-8	
4980	7.88546E-8	
4990	7.88534E-8	
